File: code/data/concrete_28_days_scaled.csv
,cement_kg,scm1_kg,scm2_kg,water_kg,additive_kg,aggregate_coarse_kg,aggregate_fine_kg,age_days,compressive_strength_mpa
0,2.62615,-0.983607,-0.949284,-1.09077,-0.83454,1.00284,-1.21008,0.0,2.94256
4,2.00442,-0.983607,-0.949284,2.32774,-1.29873,-0.287435,-2.33284,0.0,0.17295
8,1.55008,-0.44213,-0.949284,2.32774,-1.29873,-0.287435,-2.33284,0.0,0.046212
12,2.10007,-0.983607,-0.949284,-1.9195,-1.29873,1.9586,0.487764,0.0,2.39826
16,1.52617,0.228161,-0.949284,-1.6398,2.15484,-0.239647,0.538426,0.0,1.70474
21,1.178,0.123286,-0.949284,-1.30313,0.947949,-1.242,2.20888,0.0,0.949285
26,0.929308,1.1709,-0.949284,-0.940561,0.855111,-0.135708,-0.117433,0.0,2.35133
32,1.66008,1.03411,-0.949284,0.152327,0.762273,-0.850139,-0.773293,0.0,1.9905
37,-0.302575,-0.983607,0.480506,0.768177,-0.450748,-0.107752,1.20195,0.0,-0.946858
41,-0.339305,-0.983607,0.839239,0.642832,-0.43905,0.876205,-0.0792321,0.0,-0.834713
45,-0.494737,0.134115,-0.57876,-0.0698766,-0.0249929,1.31108,0.287583,0.0,0.609565
49,-0.147717,-0.983607,0.497287,0.225877,-0.271942,0.00956801,1.32532,0.0,-0.512355
53,-0.322279,-0.983607,0.889277,-0.471293,-0.0509875,1.19877,0.192696,0.0,-0.205481
57,-0.797757,-0.468235,0.894568,-0.665527,0.221956,1.23462,0.222819,0.0,-0.372995
61,0.289502,-0.983607,0.496531,-0.596638,0.348216,-0.0109809,1.29835,0.0,0.217292
65,-0.178038,-0.983607,0.941583,-2.05935,0.927525,1.56196,0.49995,0.0,1.07222
69,-0.496841,-0.983607,1.68475,-1.47354,0.866252,1.14979,0.15203,0.0,0.625519
73,-0.445668,-0.983607,0.927221,-1.27257,0.804979,1.46519,0.418071,0.0,-0.444317
77,0.474011,0.578126,-0.949284,-1.97129,-0.203242,2.07807,-0.26531,0.0,3.06268
81,2.43485,-0.983607,-0.949284,-0.676404,-0.333215,-1.20736,1.24084,0.0,1.60151
85,2.2445,-0.983607,-0.949284,0.877466,-0.741702,2.01117,-2.06995,0.0,0.502581
89,0.655747,-0.782976,1.43924,0.307714,1.54211,0.130711,-1.79884,0.0,0.51572
93,-1.15205,0.338737,0.84967,0.0487354,-0.240377,-1.47019,1.58314,0.0,-0.516578
97,2.00442,-0.983607,-0.949284,-1.09077,0.465192,1.05063,-1.40177,0.0,1.48186
101,2.24355,-0.983607,-0.949284,-1.66052,0.372354,0.919214,-1.49761,0.0,2.25186
105,-0.938268,0.49719,0.995098,-0.393599,0.147686,0.600229,-0.243402,0.0,0.30316
109,-0.876478,0.0807654,1.46797,-0.555202,0.507897,0.610981,-0.243402,0.0,0.072301
113,-0.676855,-0.983607,0.570303,-0.667598,0.0901262,0.501068,1.88164,0.0,0.0352322
117,1.72703,-0.710019,0.24498,-1.09077,0.862538,0.130711,-0.717154,0.0,0.971338
121,1.16269,-0.755617,0.471738,-1.34975,0.856968,-0.215753,1.10392,0.0,0.676195
125,2.15746,-0.68722,0.910139,0.929262,-0.569023,-1.60161,-0.895154,0.0,1.44056
129,0.177495,-0.812615,1.18225,-0.210243,-0.284939,-1.36267,0.501456,0.0,0.475366
133,1.22009,-0.983607,-0.949284,0.463101,-1.29873,-0.18469,0.290596,0.0,0.194394
137,0.22532,-0.983607,-0.949284,0.463101,-1.29873,-0.512039,1.79264,0.0,-0.760529
141,-0.427016,0.694401,-0.949284,0.136788,-1.29873,1.18205,-0.274894,0.0,-0.748845
145,1.10913,-0.983607,-0.949284,0.136788,-1.29873,1.77462,0.272796,0.0,-0.970413
149,-0.261541,-0.983607,-0.949284,0.136788,-1.29873,1.94427,0.341257,0.0,-1.30478
153,-0.523623,2.61978,-0.949284,0.136788,-1.29873,0.250181,-1.02797,0.0,0.0724887
157,-0.123804,-0.983607,-0.949284,0.136788,-1.29873,1.85825,0.272796,0.0,-1.1558
161,0.703572,-0.983607,-0.949284,0.722079,-1.29873,0.142658,0.227611,0.0,-0.320441
165,-0.625969,-0.983607,-0.949284,-0.158447,-1.29873,2.01834,1.10392,0.0,-1.66759
169,0.330536,-0.983607,-0.949284,0.0487354,-1.29873,1.42099,0.419303,0.0,-0.673769
173,0.808788,-0.983607,-0.949284,0.152327,-1.29873,1.12231,0.0769965,0.0,-0.167004
177,-1.50308,0.867674,-0.949284,1.05875,-1.29873,-0.213363,1.15868,0.0,-1.0994
181,0.38123,1.33619,-0.949284,1.05875,-1.29873,0.111596,-1.82623,0.0,0.451107
185,-0.884225,0.338737,-0.949284,0.463101,-1.29873,-0.110619,1.26548,0.0,-0.848415
189,-1.42943,0.988509,-0.949284,0.463101,-1.29873,-0.552659,1.74608,0.0,-0.980033
193,0.426186,-0.983607,-0.949284,0.463101,-1.29873,0.668327,0.898532,0.0,-0.607139
197,0.292275,-0.983607,-0.949284,0.152327,-1.29873,1.60019,0.0633043,0.0,-0.787321
201,2.24355,-0.983607,-0.949284,0.877466,-1.29873,2.01834,-2.07269,0.0,0.499766
205,1.11487,-0.983607,-0.949284,0.152327,-1.29873,1.08647,-0.347463,0.0,0.0460244
209,-0.262497,-0.983607,-0.949284,0.100531,-1.29873,1.93471,0.337149,0.0,-1.30722
213,-0.128587,-0.983607,-0.949284,0.100531,-1.29873,1.85108,0.268688,0.0,-1.16083
218,0.426186,-0.983607,-0.949284,0.463101,-1.29873,0.166552,1.17238,0.0,-0.600569
222,1.25835,-0.983607,-0.949284,0.100531,-1.29873,1.00284,-0.415925,0.0,0.159577
226,-1.06596,0.657923,0.743849,1.91338,0.55803,-0.394958,-1.45654,0.0,-1.37808
230,-1.16161,-0.983607,1.69624,-1.29795,2.04344,-0.156018,1.09022,0.0,-1.45175
234,-1.07553,1.74088,-0.949284,0.877466,-0.184674,0.548856,-1.10054,0.0,-0.673299
238,-1.18074,0.920112,1.01596,-0.469221,0.743705,-0.872839,0.28238,0.0,0.534958
242,0.139235,0.48693,0.562442,-0.572812,0.372354,-1.56577,0.556225,0.0,1.09381
246,-1.00857,1.1595,1.25784,1.03285,0.743705,-1.51798,-0.744539,0.0,-0.266011
250,0.579227,0.908712,-0.949284,-0.469221,0.372354,-0.884786,0.350842,0.0,1.66626
254,-0.970311,-0.983607,2.07417,-0.106652,1.11506,-1.27904,1.11761,0.0,-1.47427
258,0.215755,0.395734,-0.949284,-0.313834,0.00100178,-0.574163,0.88484,0.0,0.366506
262,-0.951181,1.98027,-0.949284,-0.00306021,1.11506,-1.15957,0.857455,0.0,0.0793394
266,-1.01814,1.1481,-0.949284,-0.36563,0.743705,0.405492,0.337149,0.0,-0.271173
270,-1.0564,1.1025,-0.949284,0.514896,0.372354,1.08647,-0.922538,0.0,-1.25655
274,0.454881,0.669322,-0.949284,-0.262038,0.186678,-1.06399,0.816378,0.0,0.519943
278,-1.11379,1.70668,-0.949284,-0.36563,1.11506,-1.30293,1.76114,0.0,-0.258034
282,0.579227,-0.983607,1.1369,0.82567,0.743705,-1.85249,0.378226,0.0,0.267499
286,-1.09466,-0.983607,1.84741,-0.831791,1.67209,1.40904,-1.18269,0.0,-1.58501
290,-0.0520663,0.167744,0.229862,-0.624608,0.55803,-0.239647,-0.0188492,0.0,0.886409
294,-1.15205,-0.983607,1.07643,-0.106652,0.743705,0.274075,0.652071,0.0,-1.60284
298,-1.0564,-0.983607,1.21248,0.514896,0.372354,1.08647,-0.922538,0.0,-1.65304
302,0.464446,0.669322,0.758966,-0.210243,0.186678,-1.0401,-1.01838,0.0,0.645226
306,-1.12335,-0.983607,1.80206,-0.106652,1.48641,-1.39851,1.63791,0.0,-1.44471
310,-1.0564,1.1139,1.21248,0.566692,0.372354,-0.90868,-0.895154,0.0,-0.528309
314,0.454881,-0.983607,-0.949284,-0.262038,0.186678,0.524962,0.788994,0.0,-0.792952
318,-0.989441,1.37609,1.65088,1.7062,0.55803,-1.60161,-1.73038,0.0,0.210723
322,-1.03727,1.45589,1.34854,0.877466,0.372354,-1.63745,-0.826692,0.0,-0.251465
326,-1.16161,-0.812615,1.99858,-0.36563,-0.184674,0.77585,-0.758231,0.0,-1.45691
330,-1.04683,1.04551,1.87764,1.96517,0.00100178,-1.2193,-2.059,0.0,-0.499217
334,-1.14344,1.64398,-0.949284,1.00695,-0.667432,-1.54187,1.47087,0.0,-0.274129
338,-1.08892,-0.983607,0.742337,0.0694537,0.16811,0.429386,0.705471,0.0,-1.67195
342,0.328623,-0.983607,0.861764,1.47312,0.539462,-0.930184,-0.503555,0.0,-0.878774
346,-1.0784,0.665903,-0.949284,-0.256859,0.186678,0.521378,0.791732,0.0,-1.20723
350,0.0684533,-0.983607,0.405222,0.810132,0.669435,-0.295798,-0.029803,0.0,-0.306458
354,0.453925,0.846015,-0.949284,-0.282757,0.483759,-0.471419,-0.0667721,0.0,1.06833
358,-1.10422,1.7158,-0.949284,-0.47958,0.910814,1.35289,-1.22651,0.0,0.0464936
362,-1.05831,1.10706,-0.949284,0.530435,0.390921,-0.942131,1.41473,0.0,-0.882105
366,0.452012,0.665903,-0.949284,-2.88808,0.186678,0.521378,0.791732,0.0,0.52914
370,0.11054,0.347856,0.426387,0.390587,0.00100178,-0.114203,-1.35247,0.0,0.464809
374,0.22532,0.540508,-0.949284,0.613308,-0.277512,-0.381816,-0.0585568,0.0,0.646446
378,-1.23431,0.858554,0.952467,-0.593531,0.6323,-0.399737,0.000319916,0.0,-0.522349
382,-0.989441,1.18344,1.28958,-0.220602,2.19198,-1.40926,-0.314602,0.0,-0.203229
386,0.42523,0.644244,0.731755,-0.790354,2.80471,-0.503676,-1.54964,0.0,0.0998446
390,-1.02196,0.713781,0.804318,-0.412246,1.48641,-0.0329634,-0.611724,0.0,-0.617086
394,-1.09561,-0.983607,1.83078,-0.852509,0.855111,0.419829,0.10712,0.0,-1.44133
398,0.961829,1.1481,-0.949284,0.426844,-0.0732686,-1.57413,-0.102372,0.0,1.98454
402,-1.05066,1.79217,-0.949284,-0.142908,0.688003,0.787797,-0.912954,0.0,0.0418482
406,0.20906,0.390034,0.470227,0.2352,0.409489,-0.617173,-0.9376,0.0,0.479777
410,0.545749,0.710361,-0.949284,0.141968,0.279516,-0.0604415,-0.751385,0.0,1.06697
414,-1.20274,0.884773,0.98119,2.77837,-0.221809,-1.04488,-1.4894,0.0,-0.103659
418,-1.01048,1.86627,-0.949284,-0.759277,0.966517,1.11395,-1.04303,0.0,0.184258
422,-1.11857,0.605485,0.69245,0.499358,-0.166107,-0.760537,0.213919,0.0,-0.888252
424,-0.0434577,0.162044,0.234397,0.908543,0.298083,-1.09386,-0.0393876,0.0,-0.295854