File: code/data/concrete_7_days_scaled.csv
,cement_kg,scm1_kg,scm2_kg,water_kg,additive_kg,aggregate_coarse_kg,aggregate_fine_kg,age_days,compressive_strength_mpa
0,1.55425,-0.930189,-0.344479,2.3929,-0.561856,-0.639401,-2.13735,0.0,0.864233
1,1.09875,-0.454804,-0.344479,2.3929,-0.561856,-0.639401,-2.13735,0.0,0.621388
2,-0.723288,1.44673,-0.344479,2.3929,-0.561856,-0.639401,-2.13735,0.0,0.0142773
3,0.643237,0.0205801,-0.344479,2.3929,-0.561856,-0.639401,-2.13735,0.0,0.466264
4,-1.66211,1.16551,-0.344479,0.466279,-0.561856,0.779727,0.476284,0.0,-0.789065
5,-1.09633,0.394883,-0.344479,0.466279,-0.561856,-0.0668136,0.704624,0.0,-0.785695
6,0.187729,0.495965,-0.344479,2.3929,-0.561856,-0.639401,-2.13735,0.0,0.290871
7,0.585699,0.963343,-0.344479,-0.705748,0.950737,-0.712208,-0.139989,0.0,1.38733
8,0.00360754,1.69393,-0.344479,-0.416755,0.726094,0.778493,-1.91883,0.0,1.15284
9,1.07477,0.133672,-0.344479,-1.59413,1.90921,-1.62539,1.46085,0.0,1.59381
10,1.07477,0.133672,-0.344479,-1.70652,2.22371,-0.59004,0.436999,0.0,1.42862
11,0.595289,0.00857042,-0.344479,-3.03375,2.94257,-1.62539,2.756,0.0,1.35267
12,1.55425,0.258773,-0.344479,-0.117058,0.771023,-1.62539,0.164464,0.0,2.03431
13,1.49672,0.24276,-0.344479,-2.43435,4.26047,-1.62539,0.888769,0.0,1.98589
15,0.725708,0.0415971,-0.344479,-1.35866,1.25026,-1.62539,1.93471,0.0,0.609332
16,2.09415,-0.930189,-0.344479,-2.22028,3.66142,-1.62539,1.54187,0.0,1.43527
18,0.0563506,1.19653,-0.344479,-1.4764,1.57974,-1.62539,1.3786,0.0,0.505852
19,0.852292,0.0175777,-0.344479,-1.92059,1.14543,-0.456765,1.03118,0.0,1.93083
20,0.476377,0.961341,-0.344479,-0.984037,1.17538,-0.48268,-0.151038,0.0,2.05472
21,0.10334,1.9001,-0.344479,0.0274382,0.980689,-0.50736,-1.32834,0.0,1.63511
22,0.638442,0.583035,-0.344479,-1.57273,1.81935,1.85703,-2.00231,0.0,1.44903
24,-0.255313,1.08044,-0.344479,-2.06508,1.11547,0.256501,0.436999,0.0,0.822461
26,1.20903,0.841244,-0.344479,0.145176,1.1005,-1.22063,-0.739076,0.0,2.06849
27,0.738175,0.961341,-0.344479,-2.00086,2.7329,-0.48268,-0.151038,0.0,2.27497
28,0.476377,0.961341,-0.344479,-0.984037,1.17538,-0.48268,-0.151038,0.0,-0.21708
29,0.239513,0.961341,-0.344479,-0.448865,0.86088,-0.48268,-0.151038,0.0,0.623097
30,1.27615,-0.689995,1.80803,-1.13924,1.17688,-0.207492,-0.688743,0.0,1.787
31,1.27615,-0.689995,1.80803,-1.13924,1.18137,-0.207492,-0.688743,0.0,0.823885
32,1.27615,-0.689995,1.80803,-1.13924,1.18137,-0.207492,-0.688743,0.0,0.912175
33,0.710365,-0.730027,2.21673,-1.40682,1.58273,-0.565359,0.944013,0.0,0.742716
34,0.710365,-0.730027,2.21673,-1.40682,1.52432,-0.565359,0.944013,0.0,1.36644
35,0.710365,-0.730027,2.21673,-1.40682,1.17688,-0.565359,0.944013,0.0,1.07499
36,1.70769,-0.669978,3.00689,1.42959,0.0267075,-1.25641,-0.848335,0.0,0.512091
37,1.70769,-0.669978,3.00689,0.947934,0.0267075,-1.99683,-0.848335,0.0,0.81724
38,1.06518,-0.710011,3.25212,-0.282962,0.708123,-1.99683,-0.222241,0.0,0.891832
39,1.06518,-0.710011,3.25212,-0.818134,0.774018,-1.99683,-0.222241,0.0,0.979986
40,-1.06372,-0.8201,3.49734,1.21552,-0.304266,-0.515998,0.403853,0.0,-0.755973
41,-0.277369,-0.780067,3.49734,-0.229444,0.255843,-1.75002,0.403853,0.0,-0.132113
42,0.441855,-0.740035,3.49734,-1.56737,1.07204,-0.515998,0.403853,0.0,0.668056
43,0.441855,-0.740035,3.49734,-1.56737,1.07204,-0.515998,0.403853,0.0,0.864707
44,1.6022,-0.930189,-0.344479,0.466279,-0.561856,-0.587572,-0.686287,0.0,0.5865
45,-0.555469,-0.930189,-0.344479,0.466279,-0.561856,-1.16016,2.17165,0.0,-1.08972
46,-0.229421,-0.930189,-0.344479,0.466279,-0.561856,-0.871397,1.56151,0.0,-0.788543
47,0.192524,-0.930189,-0.344479,0.466279,-0.561856,-0.649273,0.91455,0.0,-0.182144
48,0.767903,-0.930189,-0.344479,0.466279,-0.561856,-0.533275,0.214797,0.0,0.116475
49,-1.47799,1.45374,-0.344479,0.129121,-0.561856,0.700749,-0.41498,0.0,-1.13135
50,-0.70315,2.66672,-0.344479,0.129121,-0.561856,-0.520935,-1.27432,0.0,-0.0432534
51,-0.716575,0.659097,-0.344479,0.129121,-0.561856,0.700749,-0.41498,0.0,-0.713212
52,-0.550674,0.77419,-0.344479,0.129121,-0.561856,0.527986,-0.537743,0.0,-0.606837
53,-0.384773,0.890284,-0.344479,0.129121,-0.561856,0.352755,-0.660507,0.0,-0.432725
54,0.667211,-0.930189,-0.344479,0.129121,-0.561856,0.789599,-0.353598,0.0,-0.13667
55,-0.980291,2.23337,-0.344479,0.129121,-0.561856,-0.0840899,-0.967416,0.0,-0.291272
56,-0.164211,-0.930189,-0.344479,0.129121,-0.561856,1.32763,0.0146927,0.0,-0.771549
57,-1.04934,0.42791,-0.344479,0.129121,-0.561856,1.14006,-0.108071,0.0,-0.970249
58,0.806261,-0.930189,-0.344479,0.129121,-0.561856,0.700749,-0.41498,0.0,-0.0414971
59,-0.883435,0.543003,-0.344479,0.129121,-0.561856,0.878449,-0.292216,0.0,-0.892354
60,-1.69951,1.10646,-0.344479,0.129121,-0.561856,1.14006,-0.108071,0.0,-1.27665
61,0.251979,-0.930189,-0.344479,0.129121,-0.561856,1.05368,-0.169453,0.0,-0.335369
62,-1.14523,1.97416,-0.344479,0.129121,-0.561856,0.177523,-0.783271,0.0,-0.609305
63,-0.217913,1.00638,-0.344479,0.129121,-0.561856,0.177523,-0.783271,0.0,-0.288566
64,-1.25647,1.80002,-0.344479,0.129121,-0.561856,0.352755,-0.660507,0.0,-0.941673
65,-0.81439,2.49358,-0.344479,0.129121,-0.561856,-0.345703,-1.15156,0.0,-0.284579
66,0.656663,-0.930189,-0.344479,0.129121,-0.561856,1.49053,0.198838,0.0,-0.792388
67,-1.21524,0.311816,-0.344479,0.129121,-0.561856,1.22891,-0.0466891,0.0,-1.243
68,-0.717534,-0.930189,-0.344479,0.129121,-0.561856,1.66576,0.26022,0.0,-1.08189
69,-0.579443,-0.930189,-0.344479,0.129121,-0.561856,1.57691,0.198838,0.0,-1.00286
70,0.0304586,1.17852,-0.344479,0.129121,-0.561856,-0.0840899,-0.967416,0.0,-0.111037
71,-1.36771,0.62607,-0.344479,0.129121,-0.561856,0.527986,-0.537743,0.0,-1.05474
72,0.250062,-0.930189,-0.344479,0.733865,-0.561856,-0.195152,0.158326,0.0,-0.349989
73,-0.737672,-0.930189,-0.344479,0.519797,-0.561856,-0.195152,1.43507,0.0,-1.10567
74,-1.0829,-0.930189,-0.344479,-0.175927,-0.561856,1.74227,0.944013,0.0,-1.25377
75,-0.843159,-0.930189,-0.344479,-0.12241,-0.561856,1.59418,0.796697,0.0,-1.0245
76,0.115806,-0.930189,-0.344479,0.0381416,-0.561856,0.977171,0.182879,0.0,-0.585903
77,-0.363676,-0.930189,-0.344479,-0.0153756,-0.561856,1.28568,0.489788,0.0,-0.815647
78,-0.123935,-0.930189,-0.344479,0.0381416,-0.561856,1.12525,0.330195,0.0,-0.721186
79,0.595289,-0.930189,-0.344479,0.145176,-0.561856,0.668665,-0.12403,0.0,0.000796509
80,0.83503,-0.930189,-0.344479,0.198693,-0.561856,0.508242,-0.283623,0.0,0.281805
81,-0.603417,-0.930189,-0.344479,-0.0688928,-0.561856,1.43376,0.637104,0.0,-0.916753
82,0.355548,-0.930189,-0.344479,0.145176,-0.561856,0.816748,0.0232861,0.0,-0.397457
83,-1.04934,2.12528,-0.344479,1.08173,-0.561856,-0.251917,-1.6954,0.0,-0.448295
84,-0.0731097,1.10646,-0.344479,1.08173,-0.561856,-0.227237,-1.68313,0.0,-0.0107856
85,-1.64581,1.19153,-0.344479,1.08173,-0.561856,-0.148259,-0.240656,0.0,-1.07791
86,-0.601499,0.739161,-0.344479,1.08173,-0.561856,-0.0766858,-0.908489,0.0,-0.461301
87,-1.34182,0.23075,-0.344479,0.466279,-0.561856,-0.456765,1.08887,0.0,-1.00917
88,-0.737672,0.641082,-0.344479,0.466279,-0.561856,-0.138387,-0.23329,0.0,-0.387916
89,-0.967824,0.483955,-0.344479,1.08173,-0.561856,-0.128515,-0.222241,0.0,-0.758686
90,-1.40128,1.57384,-0.344479,1.08173,-0.561856,-0.101366,-0.926904,0.0,-0.709272
91,-2.02269,0.60105,-0.344479,0.466279,-0.561856,-1.19471,2.13482,0.0,-1.26502
92,-1.72541,1.07143,-0.344479,0.466279,-0.561856,-0.696166,0.87281,0.0,-0.852766
93,-1.49525,1.43172,-0.344479,0.466279,-0.561856,-0.597444,0.160781,0.0,-0.630713
94,-0.239011,0.991365,-0.344479,0.466279,-0.561856,-0.639401,-0.61754,0.0,-0.173979
95,-1.23729,0.296804,-0.344479,1.08173,-0.561856,-0.303746,0.391577,0.0,-1.0508
96,-1.96227,0.695126,-0.344479,1.08173,-0.561856,-0.562891,0.993118,0.0,-1.26175
97,-1.0829,0.400888,-0.344479,0.466279,-0.561856,-0.227237,0.46769,0.0,-0.611678
98,-1.15962,1.95214,-0.344479,0.466279,-0.561856,-0.666549,-0.63841,0.0,-0.314626
99,-1.53361,0.0906368,-0.344479,0.466279,-0.561856,-1.18237,2.14832,0.0,-1.21694
100,-1.88843,0.801212,-0.344479,0.466279,-0.561856,-0.913354,1.51977,0.0,-1.09884
101,-1.82514,0.9103,-0.344479,1.08173,-0.561856,-0.316087,0.392804,0.0,-1.08061
102,-0.0280383,-0.930189,-0.344479,0.466279,-0.561856,0.347819,0.759868,0.0,-0.606314
103,0.173344,-0.930189,-0.344479,0.466279,-0.561856,0.508242,0.64938,0.0,-0.593024
104,0.345958,-0.930189,-0.344479,0.466279,-0.561856,0.890789,0.502064,0.0,-1.17308
105,-0.718493,-0.930189,-0.344479,0.145176,-0.561856,1.66822,0.256537,0.0,-0.963746
106,-0.162293,-0.930189,-0.344479,0.145176,-0.561856,1.31036,0.0110097,0.0,-0.491443
107,-0.152704,-0.930189,-0.344479,0.145176,-0.561856,0.693345,-0.418663,0.0,0.337817
108,-0.306138,-0.930189,-0.344479,0.145176,-0.561856,1.48312,0.0723915,0.0,-0.795236
109,1.794,-0.930189,-0.344479,0.894417,-0.561856,1.74227,-1.9041,0.0,0.493036
110,2.17758,-0.930189,-0.344479,-0.550548,-0.561856,1.74227,-1.9041,0.0,1.82877
111,0.355548,-0.930189,-0.344479,1.05497,-0.561856,-0.121111,0.0846679,0.0,-0.545556
112,0.691186,-0.930189,-0.344479,0.145176,-0.561856,-0.219833,-0.0626484,0.0,-0.19477
113,0.662417,-0.930189,-0.344479,0.145176,-0.561856,0.779727,-0.357281,0.0,-0.141132
114,0.662417,-0.930189,-0.344479,0.145176,-0.561856,1.5695,0.195155,0.0,-1.00409
115,0.250062,-0.930189,-0.344479,0.0916588,-0.561856,1.05121,-0.173136,0.0,-0.336698
116,-0.171883,-0.930189,-0.344479,0.0916588,-0.561856,1.05121,0.0110097,0.0,-0.774825
117,-0.162293,-0.930189,-0.344479,0.466279,-0.561856,1.24866,-0.0380957,0.0,-0.815647
118,0.173344,-0.930189,-0.344479,0.466279,-0.561856,-0.0717497,0.698486,0.0,-0.673718
119,0.345958,-0.930189,-0.344479,0.466279,-0.561856,0.779727,0.465235,0.0,-0.545556
120,-0.584238,-0.930189,-0.344479,0.0916588,-0.561856,1.5695,0.195155,0.0,-0.849349
121,0.662417,-0.930189,-0.344479,0.0916588,-0.561856,0.779727,-0.357281,0.0,-0.141132
122,-0.584238,-0.930189,-0.344479,0.145176,-0.561856,1.5695,0.195155,0.0,-1.00409
123,-0.0280383,-0.930189,-0.344479,0.466279,-0.561856,-0.170472,1.00539,0.0,-0.761534
124,2.03374,-0.930189,-0.344479,0.305728,-0.561856,1.74227,-1.9041,0.0,1.1272
125,2.00497,-0.930189,-0.344479,-1.99551,-0.561856,-1.08365,1.57011,0.0,1.684